#gpvdm
#title Absorption
#type xy
#x_mul 1e9
#y_mul 1.000000
#x_label Wavelength
#data_label Absorption
#x_units nm
#data_units m^{-1}
#logscale_x 0
#logscale_y 0
#section_one Materials
#section_two Absorption
#data
2.5000000000000004e-07 413200.0
2.55e-07 363300.0
2.6e-07 323200.0
2.65e-07 290600.0
2.7e-07 263700.0
2.75e-07 241200.0
2.8e-07 222200.0
2.85e-07 206100.0
2.9000000000000003e-07 192300.0
2.9500000000000003e-07 180300.0
3.0000000000000004e-07 169900.0
3.0500000000000004e-07 160900.0
3.1e-07 152900.0
3.15e-07 145800.0
3.2e-07 139600.0
3.25e-07 134100.0
3.3e-07 129100.0
3.35e-07 124700.0
3.4000000000000003e-07 120700.0
3.4500000000000003e-07 117200.0
3.5000000000000004e-07 113900.0
3.5500000000000004e-07 111000.0
3.6000000000000005e-07 108400.0
3.65e-07 106000.0
3.7e-07 103800.0
3.75e-07 101800.0
3.8e-07 100000.0
3.85e-07 98400.0
3.9e-07 96900.0
3.9500000000000003e-07 95530.0
4.0000000000000003e-07 94280.0
4.0500000000000004e-07 93140.0
4.1000000000000004e-07 92090.0
4.1500000000000005e-07 91140.0
4.2e-07 90260.0
4.25e-07 89460.0
4.3e-07 88730.0
4.35e-07 88050.0
4.4e-07 87440.0
4.4500000000000003e-07 86880.0
4.5000000000000003e-07 86360.0
4.5500000000000004e-07 85900.0
4.6000000000000004e-07 85470.0
4.6500000000000005e-07 85080.0
4.7000000000000005e-07 84720.0
4.75e-07 84400.0
4.800000000000001e-07 84110.0
4.85e-07 83840.0
4.900000000000001e-07 83600.0
4.95e-07 83390.0
5.000000000000001e-07 83200.0
5.05e-07 83020.0
5.1e-07 82870.0
5.15e-07 82730.0
5.2e-07 82610.0
5.250000000000001e-07 82510.0
5.3e-07 82420.0
5.350000000000001e-07 82340.0
5.4e-07 82280.0
5.450000000000001e-07 82230.0
5.5e-07 82180.0
5.550000000000001e-07 82150.0
5.6e-07 82130.0
5.65e-07 82110.0
5.7e-07 82110.0
5.75e-07 82110.0
5.800000000000001e-07 82110.0
5.85e-07 82130.0
5.900000000000001e-07 82150.0
5.95e-07 82170.0
6.000000000000001e-07 82200.0
6.05e-07 82240.0
6.100000000000001e-07 82270.0
6.15e-07 82320.0
6.2e-07 82360.0
6.25e-07 82420.0
6.3e-07 82470.0
6.350000000000001e-07 82530.0
6.4e-07 82580.0
6.450000000000001e-07 82650.0
6.5e-07 82710.0
6.550000000000001e-07 82780.0
6.6e-07 82850.0
6.650000000000001e-07 82920.0
6.7e-07 82990.0
6.75e-07 83060.0
6.800000000000001e-07 83130.0
6.85e-07 83210.0
6.900000000000001e-07 83290.0
6.95e-07 83360.0
7.000000000000001e-07 83440.0
7.05e-07 83520.0
7.100000000000001e-07 83600.0
7.15e-07 83680.0
7.200000000000001e-07 83760.0
7.25e-07 83850.0
7.3e-07 83930.0
7.350000000000001e-07 84010.0
7.4e-07 84090.0
7.450000000000001e-07 84180.0
7.5e-07 84260.0
7.550000000000001e-07 84340.0
7.6e-07 84420.0
7.650000000000001e-07 84510.0
7.7e-07 84590.0
7.750000000000001e-07 84670.0
7.8e-07 84750.0
7.85e-07 84840.0
7.900000000000001e-07 84920.0
7.95e-07 85000.0
8.000000000000001e-07 85080.0
8.05e-07 85160.0
8.100000000000001e-07 85240.0
8.15e-07 85320.0
8.200000000000001e-07 85400.0
8.25e-07 85480.0
8.300000000000001e-07 85560.0
8.35e-07 85640.0
8.4e-07 85720.0
8.450000000000001e-07 85790.0
8.5e-07 85870.0
8.550000000000001e-07 85950.0
8.6e-07 86020.0
8.650000000000001e-07 86100.0
8.7e-07 86180.0
8.750000000000001e-07 86250.0
8.8e-07 86320.0
8.850000000000001e-07 86400.0
8.900000000000001e-07 86470.0
8.95e-07 86540.0
9.000000000000001e-07 86620.0
9.05e-07 86690.0
9.100000000000001e-07 86760.0
9.15e-07 86830.0
9.200000000000001e-07 86900.0
9.25e-07 86970.0
9.300000000000001e-07 87030.0
9.35e-07 87100.0
9.400000000000001e-07 87170.0
9.450000000000001e-07 87240.0
9.5e-07 87300.0
9.55e-07 87370.0
9.600000000000001e-07 87430.0
9.65e-07 87500.0
9.7e-07 87560.0
9.75e-07 87620.0
9.800000000000001e-07 87690.0
9.85e-07 87750.0
9.9e-07 87810.0
9.95e-07 87870.0
1.0000000000000002e-06 87930.0
1.0050000000000001e-06 87990.0
1.01e-06 88050.0
1.015e-06 88110.0
1.02e-06 88170.0
1.0250000000000001e-06 88230.0
1.03e-06 88280.0
1.035e-06 88340.0
1.04e-06 88400.0
1.0450000000000002e-06 88450.0
1.0500000000000001e-06 88510.0
1.055e-06 88560.0
1.06e-06 88610.0
1.065e-06 88670.0
1.0700000000000001e-06 88720.0
1.075e-06 88770.0
1.08e-06 88820.0
1.085e-06 88880.0
1.0900000000000002e-06 88930.0
1.095e-06 88980.0
1.1e-06 89030.0
1.105e-06 89080.0
1.1100000000000002e-06 89120.0
1.1150000000000001e-06 89170.0
1.12e-06 89220.0
1.125e-06 89270.0
1.13e-06 89320.0
1.1350000000000001e-06 89360.0
1.14e-06 89410.0
1.145e-06 89450.0
1.15e-06 89500.0
1.1550000000000002e-06 89540.0
1.1600000000000001e-06 89590.0
1.165e-06 89630.0
1.17e-06 89670.0
1.175e-06 89720.0
1.1800000000000001e-06 89760.0
1.185e-06 89800.0
1.19e-06 89840.0
1.195e-06 89890.0
1.2000000000000002e-06 89930.0
1.2050000000000001e-06 89970.0
1.21e-06 90010.0
1.215e-06 90050.0
1.2200000000000002e-06 90090.0
1.2250000000000001e-06 90120.0
1.23e-06 90160.0
1.235e-06 90200.0
1.24e-06 90240.0
1.2450000000000002e-06 90280.0
1.25e-06 90310.0
1.255e-06 90350.0
1.26e-06 90390.0
1.2650000000000002e-06 90420.0
1.2700000000000001e-06 90460.0
1.275e-06 90490.0
1.28e-06 90530.0
1.285e-06 90560.0
1.2900000000000001e-06 90600.0
1.295e-06 90630.0
1.3e-06 90660.0
1.305e-06 90700.0
1.3100000000000002e-06 90730.0
1.3150000000000001e-06 90760.0
1.32e-06 90790.0
1.325e-06 90830.0
1.3300000000000002e-06 90860.0
1.3350000000000001e-06 90890.0
1.34e-06 90920.0
1.345e-06 90950.0
1.35e-06 90980.0
1.3550000000000002e-06 91010.0
1.3600000000000001e-06 91040.0
1.365e-06 91070.0
1.37e-06 91100.0
1.3750000000000002e-06 91130.0
1.3800000000000001e-06 91160.0
1.385e-06 91180.0
1.39e-06 91210.0
1.395e-06 91240.0
1.4000000000000001e-06 91270.0
1.405e-06 91290.0
1.41e-06 91320.0
1.415e-06 91350.0
1.4200000000000002e-06 91370.0
1.4250000000000001e-06 91400.0
1.43e-06 91430.0
1.435e-06 91450.0
1.4400000000000002e-06 91480.0
1.4450000000000001e-06 91500.0
1.45e-06 91530.0
1.455e-06 91550.0
1.46e-06 91580.0
1.4650000000000002e-06 91600.0
1.4700000000000001e-06 91620.0
1.475e-06 91650.0
1.48e-06 91670.0
1.4850000000000002e-06 91690.0
1.4900000000000001e-06 91720.0
1.495e-06 91740.0
1.5e-06 91760.0
1.505e-06 91780.0
1.5100000000000002e-06 91810.0
1.5150000000000001e-06 91830.0
1.52e-06 91850.0
1.525e-06 91870.0
1.5300000000000002e-06 91890.0
1.5350000000000001e-06 91910.0
1.54e-06 91930.0
1.545e-06 91950.0
1.5500000000000002e-06 91970.0
1.5550000000000001e-06 91990.0
1.56e-06 92010.0
1.565e-06 92030.0
1.57e-06 92050.0
1.5750000000000002e-06 92070.0
1.5800000000000001e-06 92090.0
1.585e-06 92110.0
1.59e-06 92130.0
1.5950000000000002e-06 92150.0
1.6000000000000001e-06 92170.0
1.605e-06 92190.0
1.61e-06 92200.0
1.615e-06 92220.0
1.6200000000000002e-06 92240.0
1.6250000000000001e-06 92260.0
1.63e-06 92270.0
1.635e-06 92290.0
1.6400000000000002e-06 92310.0
1.6450000000000001e-06 92330.0
1.65e-06 92340.0
1.655e-06 92360.0
1.6600000000000002e-06 92380.0
1.6650000000000002e-06 92390.0
1.67e-06 92410.0
1.675e-06 92420.0
1.68e-06 92440.0
1.6850000000000002e-06 92460.0
1.6900000000000001e-06 92470.0
1.695e-06 92490.0
1.7e-06 92500.0
1.7050000000000002e-06 92520.0
1.7100000000000001e-06 92530.0
1.715e-06 92550.0
1.72e-06 92560.0
1.7250000000000002e-06 92570.0
1.7300000000000002e-06 92590.0
1.7350000000000001e-06 92600.0
1.74e-06 92620.0
1.745e-06 92630.0
1.7500000000000002e-06 92640.0
1.7550000000000001e-06 92660.0
1.76e-06 92670.0
1.765e-06 92680.0
1.7700000000000002e-06 92700.0
1.7750000000000002e-06 92710.0
1.7800000000000001e-06 92720.0
1.785e-06 92740.0
1.79e-06 92750.0
1.7950000000000002e-06 92760.0
1.8000000000000001e-06 92770.0
1.805e-06 92790.0
1.81e-06 92800.0
1.8150000000000002e-06 92810.0
1.8200000000000002e-06 92820.0
1.825e-06 92830.0
1.83e-06 92850.0
1.8350000000000002e-06 92860.0
1.8400000000000002e-06 92870.0
1.8450000000000001e-06 92880.0
1.85e-06 92890.0
1.855e-06 92900.0
1.8600000000000002e-06 92910.0
1.8650000000000001e-06 92920.0
1.87e-06 92930.0
1.875e-06 92950.0
1.8800000000000002e-06 92960.0
1.8850000000000002e-06 92970.0
1.8900000000000001e-06 92980.0
1.895e-06 92990.0
1.9e-06 93000.0
1.9050000000000002e-06 93010.0
1.91e-06 93020.0
1.9150000000000003e-06 93030.0
1.9200000000000003e-06 93040.0
1.925e-06 93050.0
1.93e-06 93060.0
1.935e-06 93060.0
1.94e-06 93070.0
1.945e-06 93080.0
1.95e-06 93090.0
1.955e-06 93100.0
1.9600000000000003e-06 93110.0
1.9650000000000002e-06 93120.0
1.97e-06 93130.0
1.975e-06 93140.0
1.98e-06 93140.0
1.985e-06 93150.0
1.99e-06 93160.0
1.995e-06 93170.0
2.0000000000000003e-06 93180.0